##TITLE= Emodine, C15H10O4                                                                        
##JCAMP-DX= 4.24
##DATA TYPE= INELASTIC NEUTRON SCATTERING
##ORIGIN= TFXA, ISIS
##OWNER= H. Jobic, Neutrons and Numerical Methods N2M, (Eds. M. R. Johnson, G. J. Kearley, and H. G. Buttner) AIP Conf. Proc. Vol.479, 1999,  pp.183-186
##NPOINTS= 1992
##XUNITS= 1/CM
##YUNITS= S(Q,w)
##RESOLUTION= 
##FIRSTX=  1.600000E+01
##LASTX=  3.998000E+03
##XFACTOR= 1.0
##YFACTOR=  7.638265E-08
##FIRSTY=  1.455189E-01
##MAXY=  5.303952E-01
##MINY=  7.638266E-02
##XYDATA= (X++(Y..Y))
  16.000   1905129   1980129   2236804   2582724   2659074   2577840
  28.000   2813925   2792571   2708260   2934605   3094106   2974652
  40.000   2955081   3009109   2843213   2737926   2762745   2965277
  52.000   3180416   3275562   3209261   3247950   3204975   3048823
  64.000   3123403   3138836   3216082   3147159   3255202   3113532
  76.000   3259539   3362497   3624285   3577682   3669549   3921864
  88.000   4164072   4413695   4654928   4604425   4312774   4219003
 100.000   4355692   4810990   5058022   5430260   5949568   6377342
 112.000   6943921   6588708   6414638   5831831   5527064   4716367
 124.000   3891383   3355930   3023352   2818688   2669783   2523043
 136.000   2652216   2705838   2506287   2261766   2241011   2058270
 148.000   2151550   2173187   2238237   2393615   2463262   2656449
 160.000   2410930   2267018   2281028   2060872   2044898   2140048
 172.000   2297228   2464602   2664413   2868129   3135791   3378016
 184.000   3461154   3526360   3273567   3028392   2910207   2751929
 196.000   2788320   2867616   2747408   2514051   2257653   2082316
 208.000   1872720   1792376   1761017   1704583   1708927   1624904
 220.000   1503276   1606695   1715988   1920476   1961077   2209768
 232.000   2708857   3411849   3926346   4140860   4291008   4159088
 244.000   3427089   2614516   2230296   2030110   2039911   2125039
 256.000   2294001   2630938   2916447   3126306   3144903   3251736
 268.000   3199330   3243122   3221504   3099415   2895073   2675433
 280.000   2645341   2594587   2624014   2440899   2322712   1904032
 292.000   1752721   1645184   1562550   1449067   1484344   1520336
 304.000   1610906   1613315   1535011   1545676   1547309   1674497
 316.000   1792601   2032656   2144683   2278725   2188155   2107669
 328.000   1905902   1868441   1957126   2148353   2471460   2485785
 340.000   2396049   2069598   1743515   1520012   1438242   1247305
 352.000   1254324   1287746   1243725   1347903   1464431   1620046
 364.000   1769045   1861598   1940597   1726244   1527168   1394489
 376.000   1318925   1372100   1421837   1487870   1584592   1687384
 388.000   1879160   1906466   1845674   1724068   1545657   1296967
 400.000   1168959   1082295   1000000   1011086   1056999   1139097
 412.000   1160650   1212065   1260527   1251235   1241778   1184173
 424.000   1067615   1002936   1008580   1070451   1052647   1091438
 436.000   1173165   1234131   1303808   1392416   1497712   1540474
 448.000   1614827   1696583   1590817   1580004   1512708   1477523
 460.000   1471693   1515667   1597769   1685621   1735773   1677067
 472.000   1572594   1490922   1402338   1285952   1162417   1138640
 484.000   1212905   1191435   1184426   1181296   1172239   1217172
 496.000   1202198   1188432   1221824   1314512   1466436   1597166
 508.000   1696605   1764193   1793034   1846229   1627093   1437689
 520.000   1276983   1143709   1189275   1287931   1362322   1339094
 532.000   1361043   1464822   1604531   1815619   1969320   2024682
 544.000   2055277   2056997   1846751   1722777   1617690   1440882
 556.000   1491220   1500713   1460300   1348940   1361465   1388164
 568.000   1317370   1405441   1459583   1476723   1647647   1734682
 580.000   1810311   1868897   1731617   1543534   1444247   1310008
 592.000   1179357   1174445   1348550   1504858   1657900   1643099
 604.000   1635925   1758257   1738644   1720711   1649638   1708898
 616.000   1775000   1935225   2040376   2187599   2307757   2348562
 628.000   2394113   2203494   2098451   1924749   1839139   1768082
 640.000   1656441   1728260   1869142   1968446   2028888   2207695
 652.000   2384036   2556818   2587886   2589112   2578155   2495276
 664.000   2436034   2048088   1924019   1660001   1502211   1391210
 676.000   1261241   1253533   1275287   1199596   1128474   1124417
 688.000   1135283   1251753   1290867   1358136   1475927   1543782
 700.000   1678291   1722770   1893637   2006670   2188885   2334638
 712.000   2425980   2650599   2698555   2780072   2811545   2902427
 724.000   2848325   2783141   2523648   2378195   2489542   2514150
 736.000   2450103   2432653   2336675   2398046   2542090   2417636
 748.000   2259418   2272722   2282658   2231331   2208842   2294076
 760.000   2314224   2445863   2458921   2524097   2514501   2420331
 772.000   2420142   2419204   2423769   2438732   2464461   2527467
 784.000   2470643   2358562   2265602   2109391   1986336   1801702
 796.000   1747081   1670695   1724088   1796619   1711622   1594794
 808.000   1649331   1728387   1725286   1720338   1778795   1886311
 820.000   1836614   1725458   1722703   1714675   1694659   1610302
 832.000   1604669   1562456   1568178   1734140   1734140   1995750
 844.000   2012900   2185486   2220039   2433190   2517165   2843432
 856.000   3069277   3144076   3234072   3243408   3264566   3265047
 868.000   3267821   3267821   3177555   3175565   2948043   2890572
 880.000   2771093   2693834   2591692   2441839   2467376   2574602
 892.000   2574602   2733668   2738872   2627234   2586607   2582050
 904.000   2577246   2582706   2601061   2601061   2209454   2193315
 916.000   1968683   1863089   1773715   1633107   1619401   1472935
 928.000   1472934   1544821   1566173   1525937   1475727   1479818
 940.000   1513932   1513932   1536493   1543709   1490212   1408761
 952.000   1408710   1406599   1406599   1417681   1423954   1430932
 964.000   1452821   1452821   1695094   1743683   1746565   1750676
 976.000   1750676   1872995   1875594   1915463   1950246   1951850
 988.000   1971152   1971152   1976002   1979141   1969068   1898658
1000.000   1898658   1884082   1875549   1883978   1943561   1943561
1012.000   1984683   2011585   2017704   2095935   2095935   2149181
1024.000   2196794   2196795   2156730   2155515   2159167   2164634
1036.000   2164634   1901579   1842809   1783803   1576415   1576415
1048.000   1476747   1413737   1413737   1539976   1541158   1536933
1060.000   1529280   1529280   1452294   1420468   1427074   1564008
1072.000   1564008   1560534   1554650   1554650   1665612   1717088
1084.000   1717089   1741970   1742439   1759948   1808160   1808160
1096.000   1874508   1931547   1931547   1868816   1852681   1850040
1108.000   1785700   1785700   1827591   1941052   1941052   1991599
1120.000   2045067   2045067   2010036   1994181   1994181   1995163
1132.000   1995301   2007625   2235681   2235681   2221766   2169885
1144.000   2169885   2291404   2509756   2509756   2604125   2702589
1156.000   2702589   2721535   2733811   2733811   2932345   3013500
1168.000   3013500   2870645   2834573   2834573   2740484   2726719
1180.000   2726719   2565021   2553179   2553180   2535390   2534961
1192.000   2535351   2596468   2596468   2592195   2396445   2396445
1204.000   2399482   2537803   2537804   2536567   2348533   2348533
1216.000   2348533   2139052   2134025   2134025   2197000   2201634
1228.000   2201634   2141438   2132535   2132534   2056082   2036424
1240.000   2036424   2071078   2085615   2085615   2260733   2378474
1252.000   2378474   2367720   2355883   2355883   2324502   2263142
1264.000   2263142   2267843   2288533   2288533   2287629   2232227
1276.000   2232228   2232228   2198406   2191533   2191533   2215326
1288.000   2229285   2229285   2177995   2105196   2105196   2085797
1300.000   1997676   1997676   1997676   1842612   1831169   1831169
1312.000   1799148   1783085   1783085   1753287   1705542   1705542
1324.000   1717899   1849023   1849023   1849023   1707173   1665171
1336.000   1665172   1683588   1706987   1706987   1719416   1841231
1348.000   1841231   1841230   1814022   1803858   1803858   1806091
1360.000   1810299   1810299   1810299   2002920   2013408   2013408
1372.000   1948539   1891720   1891720   1895463   1928858   1928858
1384.000   1928858   1895557   1877724   1877724   1869571   1833548
1396.000   1833548   1833548   1909378   1941808   1941808   1932367
1408.000   1894359   1894359   1894359   1984573   2027040   2027041
1420.000   2059267   2251910   2251909   2251910   2222255   2201567
1432.000   2201567   2201121   2175264   2175264   2175264   2178344
1444.000   2182477   2182477   2182477   2117502   2103158   2103157
1456.000   2118113   2180551   2180551   2180551   2059058   1959330
1468.000   1959330   1959330   1983407   1986475   1986475   1978209
1480.000   1946430   1946431   1946431   1945743   1945076   1945076
1492.000   1945076   2213565   2284945   2284945   2270856   2023528
1504.000   2023528   2023528   1993500   1923144   1923144   1923144
1516.000   1872961   1827672   1827672   1827672   1775954   1757142
1528.000   1757142   1757142   1858592   1867182   1867182   1874698
1540.000   1949279   1949279   1949279   1971930   2042901   2042901
1552.000   2042901   1964766   1833518   1833518   1833518   1877532
1564.000   1924259   1924259   1924259   1933192   1939729   1939729
1576.000   1939729   1887180   1858926   1858926   1858926   1795399
1588.000   1768640   1768640   1768640   1849896   1878874   1878874
1600.000   1878874   1760128   1720726   1720726   1720726   1870784
1612.000   1922247   1922247   1922247   1743836   1673875   1673875
1624.000   1673875   1648433   1636011   1636011   1636011   1649082
1636.000   1657608   1657608   1657608   1586765   1520926   1520926
1648.000   1520926   1590065   1689192   1689193   1689193   1707205
1660.000   1752850   1752850   1752850   1739736   1655235   1655235
1672.000   1655235   1655235   1576675   1573827   1573828   1573828
1684.000   1524008   1509536   1509536   1509536   1539674   1562998
1696.000   1562998   1562998   1580335   1615288   1615288   1615288
1708.000   1613706   1595063   1595064   1595064   1595064   1584701
1720.000   1582167   1582167   1582167   1592571   1602661   1602661
1732.000   1602661   1602974   1604303   1604303   1604303   1604303
1744.000   1782465   1813626   1813626   1813626   1750387   1684659
1756.000   1684659   1684659   1679275   1634731   1634731   1634731
1768.000   1634731   1764783   1819629   1819629   1819629   1828302
1780.000   1850949   1850949   1850949   1850949   1758531   1739375
1792.000   1739375   1739375   1650271   1490079   1490079   1490079
1804.000   1490080   1544476   1553020   1553019   1553020   1591849
1816.000   1664435   1664435   1664435   1664435   1524326   1491525
1828.000   1491525   1491526   1490696   1488200   1488200   1488201
1840.000   1488201   1521007   1537490   1537490   1537490   1537514
1852.000   1537904   1537904   1537904   1537904   1495743   1439688
1864.000   1439688   1439688   1439688   1470139   1478911   1478911
1876.000   1478911   1485870   1548348   1548348   1548348   1548348
1888.000   1515835   1467207   1467207   1467207   1467207   1583633
1900.000   1638994   1638994   1638994   1638994   1557003   1550940
1912.000   1550940   1550940   1562010   1619798   1619798   1619798
1924.000   1619798   1532086   1380525   1380525   1380525   1380525
1936.000   1425055   1461725   1461725   1461725   1461725   1423995
1948.000   1408297   1408297   1408297   1408297   1520467   1541878
1960.000   1541878   1541878   1541877   1404366   1396963   1396963
1972.000   1396963   1407119   1698947   1698947   1698947   1698947
1984.000   1673378   1426387   1426387   1426387   1426387   1431885
1996.000   1468896   1468896   1468896   1468896   1472099   1491783
2008.000   1491783   1491783   1491783   1473898   1349400   1349399
2020.000   1349400   1349400   1369988   1587954   1587954   1587954
2032.000   1587954   1589042   1638033   1638033   1638033   1638033
2044.000   1638033   1582086   1577992   1577992   1577993   1577993
2056.000   1597122   1601420   1601420   1601420   1601420   1580518
2068.000   1570478   1570478   1570478   1570478   1557348   1544678
2080.000   1544678   1544678   1544678   1586784   1677754   1677754
2092.000   1677754   1677754   1663778   1535179   1535179   1535179
2104.000   1535179   1535179   1399474   1376206   1376207   1376207
2116.000   1376207   1378195   1379619   1379619   1379619   1379619
2128.000   1386544   1403863   1403863   1403863   1403863   1403863
2140.000   1441506   1442992   1442992   1442992   1442992   1395661
2152.000   1365647   1365647   1365647   1365647   1359797   1340753
2164.000   1340753   1340753   1340753   1340753   1327352   1324631
2176.000   1324631   1324631   1324631   1302380   1269058   1269058
2188.000   1269058   1269058   1269058   1452599   1463821   1463821
2200.000   1463821   1463821   1456050   1446819   1446819   1446819
2212.000   1446819   1446819   1296346   1287477   1287477   1287477
2224.000   1287477   1310942   1345550   1345550   1345551   1345550
2236.000   1345551   1451716   1472553   1472553   1472553   1472553
2248.000   1460686   1423130   1423130   1423130   1423130   1423130
2260.000   1382955   1357946   1357946   1357946   1357946   1357946
2272.000   1459128   1462868   1462868   1462868   1462868   1500273
2284.000   1594435   1594435   1594435   1594435   1594435   1554594
2296.000   1525229   1525229   1525229   1525229   1525229   1433012
2308.000   1415251   1415251   1415251   1415251   1415764   1422307
2320.000   1422307   1422307   1422307   1422307   1438079   1478999
2332.000   1478999   1478999   1478999   1478999   1464008   1446013
2344.000   1446013   1446013   1446013   1446013   1521224   1570988
2356.000   1570988   1570988   1570988   1570988   1482729   1448380
2368.000   1448380   1448380   1448380   1448380   1590990   1624801
2380.000   1624801   1624801   1624801   1624801   1549850   1538395
2392.000   1538395   1538395   1538395   1538395   1531648   1530873
2404.000   1530873   1530873   1530873   1530873   1624872   1635741
2416.000   1635741   1635741   1635741   1635741   1509712   1490165
2428.000   1490165   1490165   1490165   1490165   1448475   1438380
2440.000   1438380   1438380   1438380   1438380   1427912   1423720
2452.000   1423720   1423721   1423721   1423721   1475764   1511518
2464.000   1511518   1511518   1511518   1511518   1485111   1451594
2476.000   1451594   1451594   1451595   1451595   1430623   1370287
2488.000   1370287   1370287   1370287   1370287   1373148   1435019
2500.000   1435019   1435019   1435019   1435019   1435019   1433652
2512.000   1433309   1433309   1433309   1433309   1433309   1403715
2524.000   1376772   1376772   1376772   1376772   1376772   1362717
2536.000   1311723   1311723   1311723   1311722   1311723   1311723
2548.000   1341184   1345313   1345313   1345313   1345313   1345313
2560.000   1315318   1286089   1286089   1286089   1286089   1286089
2572.000   1277289   1201474   1201474   1201474   1201474   1201474
2584.000   1201474   1216165   1223415   1223415   1223415   1223415
2596.000   1223415   1274572   1475569   1475569   1475569   1475569
2608.000   1475569   1475569   1391934   1356766   1356766   1356766
2620.000   1356766   1356767   1350052   1317841   1317841   1317841
2632.000   1317842   1317842   1317842   1350448   1371435   1371435
2644.000   1371435   1371435   1371436   1370235   1266851   1266851
2656.000   1266851   1266851   1266851   1266851   1254849   1235389
2668.000   1235389   1235389   1235389   1235389   1235389   1381668
2680.000   1438977   1438977   1438977   1438977   1438977   1437258
2692.000   1361174   1361174   1361174   1361173   1361173   1361173
2704.000   1358565   1352249   1352249   1352249   1352249   1352249
2716.000   1352249   1360149   1367196   1367196   1367196   1367196
2728.000   1367196   1367196   1467396   1504208   1504208   1504208
2740.000   1504208   1504208   1504208   1451635   1445795   1445795
2752.000   1445795   1445795   1445795   1440941   1305283   1305283
2764.000   1305283   1305283   1305283   1305283   1309177   1334207
2776.000   1334207   1334207   1334207   1334207   1334207   1346855
2788.000   1397345   1397345   1397345   1397345   1397345   1397346
2800.000   1456767   1654220   1654220   1654220   1654220   1654220
2812.000   1654220   1568289   1276567   1276567   1276567   1276567
2824.000   1276567   1276567   1297846   1389397   1389397   1389397
2836.000   1389397   1389397   1389397   1398103   1465349   1465349
2848.000   1465349   1465349   1465349   1465349   1465078   1412487
2860.000   1412487   1412488   1412487   1412487   1412487   1412487
2872.000   1382990   1378193   1378193   1378193   1378193   1378193
2884.000   1378193   1484483   1534630   1534630   1534630   1534630
2896.000   1534630   1534631   1489742   1437630   1437630   1437630
2908.000   1437630   1437630   1437630   1453916   1515151   1515151
2920.000   1515151   1515152   1515152   1515152   1515152   1571386
2932.000   1576200   1576200   1576200   1576200   1576200   1576200
2944.000   1525624   1491299   1491299   1491299   1491299   1491299
2956.000   1491299   1515779   1596019   1596019   1596019   1596019
2968.000   1596019   1596019   1596019   1728200   1754327   1754327
2980.000   1754327   1754327   1754327   1754327   1798455   1864911
2992.000   1864911   1864911   1864911   1864911   1864911   1864911
3004.000   1853174   1852238   1852238   1852238   1852238   1852238
3016.000   1852238   1909758   1990623   1990623   1990623   1990623
3028.000   1990623   1990624   1990624   2009427   2012294   2012294
3040.000   2012294   2012294   2012294   2012294   1950991   1794986
3052.000   1794986   1794986   1794986   1794986   1794986   1794987
3064.000   1907444   1965747   1965747   1965747   1965747   1965747
3076.000   1965747   1965747   1893279   1893048   1893048   1893048
3088.000   1893047   1893047   1893047   1857178   1772224   1772224
3100.000   1772224   1772224   1772224   1772224   1772224   1696714
3112.000   1636985   1636985   1636985   1636985   1636985   1636985
3124.000   1636985   1643840   1645761   1645761   1645761   1645761
3136.000   1645761   1645761   1645761   1336103   1324860   1324860
3148.000   1324860   1324860   1324860   1324860   1350102   1554877
3160.000   1554877   1554877   1554877   1554877   1554877   1554877
3172.000   1555984   1560017   1560017   1560017   1560017   1560017
3184.000   1560017   1560018   1512398   1390777   1390777   1390776
3196.000   1390776   1390777   1390776   1390777   1393159   1398516
3208.000   1398516   1398516   1398516   1398516   1398516   1398516
3220.000   1411721   1443365   1443365   1443365   1443365   1443365
3232.000   1443365   1443365   1446274   1455443   1455443   1455443
3244.000   1455443   1455443   1455443   1455443   1451938   1431598
3256.000   1431598   1431598   1431598   1431598   1431598   1431598
3268.000   1431085   1391159   1391159   1391159   1391159   1391159
3280.000   1391159   1391159   1391159   1498594   1519399   1519398
3292.000   1519399   1519398   1519398   1519399   1519399   1387603
3304.000   1307533   1307533   1307533   1307533   1307533   1307533
3316.000   1307533   1357778   1445149   1445149   1445149   1445149
3328.000   1445150   1445150   1445150   1450671   1527538   1527538
3340.000   1527538   1527538   1527538   1527538   1527538   1527538
3352.000   1530467   1531566   1531565   1531565   1531565   1531565
3364.000   1531566   1531566   1546461   1574622   1574622   1574622
3376.000   1574622   1574622   1574622   1574622   1574622   1365338
3388.000   1347783   1347783   1347783   1347783   1347783   1347783
3400.000   1347783   1342518   1336268   1336268   1336268   1336268
3412.000   1336268   1336268   1336268   1336268   1302141   1300329
3424.000   1300329   1300329   1300329   1300329   1300329   1300329
3436.000   1381202   1502869   1502869   1502869   1502869   1502869
3448.000   1502869   1502869   1502869   1486805   1482945   1482945
3460.000   1482945   1482945   1482945   1482945   1482945   1452561
3472.000   1304518   1304518   1304518   1304518   1304518   1304518
3484.000   1304518   1304518   1352072   1401351   1401351   1401351
3496.000   1401351   1401351   1401351   1401351   1401351   1428444
3508.000   1436602   1436602   1436602   1436602   1436602   1436602
3520.000   1436603   1436393   1350878   1350878   1350878   1350878
3532.000   1350878   1350878   1350878   1350878   1365949   1429215
3544.000   1429215   1429215   1429215   1429215   1429215   1429215
3556.000   1429215   1405324   1358610   1358610   1358610   1358610
3568.000   1358610   1358610   1358610   1358610   1310854   1250089
3580.000   1250089   1250089   1250089   1250089   1250089   1250089
3592.000   1250089   1336039   1422917   1422917   1422917   1422917
3604.000   1422917   1422917   1422917   1422917   1406509   1390730
3616.000   1390730   1390730   1390730   1390730   1390730   1390730
3628.000   1390730   1435900   1485344   1485344   1485344   1485344
3640.000   1485344   1485344   1485344   1485344   1430755   1348798
3652.000   1348798   1348798   1348798   1348798   1348798   1348798
3664.000   1348798   1333576   1293816   1293816   1293816   1293816
3676.000   1293816   1293816   1293816   1293816   1315301   1492470
3688.000   1492470   1492470   1492470   1492470   1492470   1492470
3700.000   1492470   1492470   1355610   1339348   1339348   1339348
3712.000   1339348   1339348   1339348   1339348   1339348   1252397
3724.000   1202023   1202023   1202024   1202023   1202023   1202024
3736.000   1202023   1202023   1243222   1328286   1328286   1328286
3748.000   1328286   1328286   1328286   1328286   1328287   1328287
3760.000   1389280   1390979   1390979   1390979   1390979   1390979
3772.000   1390979   1390979   1390979   1418096   1438324   1438324
3784.000   1438324   1438324   1438324   1438324   1438324   1438324
3796.000   1421987   1308261   1308261   1308261   1308261   1308261
3808.000   1308261   1308261   1308261   1308261   1320774   1328085
3820.000   1328085   1328085   1328085   1328085   1328085   1328085
3832.000   1328085   1336141   1418122   1418122   1418122   1418122
3844.000   1418122   1418122   1418122   1418122   1418122   1428576
3856.000   1439035   1439035   1439035   1439035   1439035   1439035
3868.000   1439035   1439035   1439035   1527499   1541611   1541611
3880.000   1541611   1541611   1541611   1541611   1541611   1541611
3892.000   1507726   1349906   1349906   1349906   1349906   1349906
3904.000   1349906   1349906   1349906   1349906   1314906   1270833
3916.000   1270833   1270833   1270833   1270833   1270833   1270833
3928.000   1270833   1270833   1402792   1470835   1470835   1470835
3940.000   1470835   1470835   1470835   1470835   1470835   1470835
3952.000   1398887   1383955   1383955   1383955   1383955   1383955
3964.000   1383955   1383955   1383955   1383955   1470314   1475122
3976.000   1475122   1475122   1475122   1475122   1475122   1475122
3988.000   1475122   1473621   1386679   1386678   1386678   1386678
##END=
