##TITLE=tannic acid
##JCAMP-DX=4.24
##DATATYPE=RAMAN SPECTRUM
##ORIGIN=Ocean Optics R2000
##OWNER=Augustana College (SD), Chemistry Dept
##SPECTROMETER/DATA SYSTEM=Ocean Optics R2000
##DATE=2000/10/04
##TIME=14:47
##XUNITS=1/CM
##YUNITS=ARBITRARY UNITS
##FIRSTX=100.595
##LASTX=2854.713
##MAXX=2854.713
##MINX=100.595
##MAXY=300.889
##MINY=4.667
##XFACTOR=1.000000
##YFACTOR=1.000000
##NPOINTS=1949
##FIRSTY=42.644
##XYDATA=(XY..XY)
 100.595,   42.644
 102.805,   44.511
 105.013,   44.556
 107.220,   46.822
 109.426,   47.333
 111.631,   46.578
 113.835,   29.200
 116.037,   17.022
 118.238,   16.511
 120.438,   16.178
 122.637,   15.000
 124.835,   14.933
 127.032,   19.956
 129.227,   20.556
 131.421,   19.111
 133.614,   17.133
 135.806,   15.889
 137.997,   17.800
 140.186,   16.289
 142.375,   17.956
 144.562,   20.711
 146.748,   20.933
 148.933,   19.867
 151.116,   19.311
 153.299,   20.089
 155.480,   30.956
 157.660,   36.222
 159.839,   31.400
 162.017,   32.956
 164.194,   34.133
 166.369,   35.600
 168.544,   36.956
 170.717,   35.422
 172.889,   35.156
 175.060,   33.800
 177.229,   32.711
 179.398,   31.267
 181.565,   33.356
 183.732,   35.978
 185.897,   38.200
 188.061,   29.889
 190.223,   26.378
 192.385,   30.933
 194.546,   33.222
 196.705,   33.556
 198.863,   31.978
 201.020,   30.200
 203.176,   31.000
 205.331,   34.778
 207.484,   34.622
 209.637,   35.689
 211.788,   37.311
 213.938,   34.933
 216.087,   32.044
 218.235,   30.000
 220.382,   28.889
 222.527,   27.511
 224.672,   26.022
 226.815,   22.489
 228.957,   25.089
 231.098,   27.156
 233.238,   28.289
 235.377,   28.111
 237.514,   25.778
 239.651,   26.667
 241.786,   24.511
 243.920,   23.911
 246.053,   23.689
 248.185,   23.133
 250.316,   33.978
 252.446,   32.889
 254.574,   32.667
 256.702,   29.178
 258.828,   28.222
 260.953,   25.222
 263.077,   23.267
 265.200,   22.022
 267.322,   27.289
 269.443,   25.600
 271.562,   23.533
 273.681,   23.956
 275.798,   23.067
 277.914,   24.711
 280.029,   27.911
 282.143,   16.867
 284.256,   19.133
 286.368,   20.378
 288.478,   21.467
 290.588,   24.511
 292.696,   26.133
 294.803,   28.178
 296.910,   31.600
 299.015,   30.000
 301.118,   35.067
 303.221,   41.644
 305.323,   45.467
 307.423,   51.178
 309.523,   59.644
 311.621,   65.067
 313.719,   74.333
 315.815,   87.489
 317.910,   97.978
 320.004,  109.067
 322.096,  117.889
 324.188,  128.756
 326.279,  139.244
 328.368,  149.533
 330.457,  160.822
 332.544,  170.733
 334.630,  180.133
 336.715,  190.600
 338.799,  201.578
 340.882,  207.089
 342.964,  215.733
 345.045,  224.578
 347.124,  230.422
 349.203,  235.133
 351.280,  240.422
 353.357,  246.756
 355.432,  249.444
 357.506,  254.956
 359.579,  259.400
 361.651,  263.311
 363.722,  265.067
 365.792,  266.578
 367.861,  269.356
 369.928,  269.867
 371.995,  272.800
 374.060,  272.689
 376.125,  270.689
 378.188,  267.000
 380.250,  270.733
 382.311,  270.756
 384.371,  270.133
 386.430,  272.911
 388.488,  272.533
 390.545,  274.089
 392.601,  272.556
 394.655,  274.022
 396.709,  275.778
 398.761,  277.289
 400.813,  277.911
 402.863,  277.467
 404.912,  288.089
 406.960,  289.022
 409.007,  288.467
 411.053,  285.689
 413.098,  287.667
 415.142,  287.978
 417.185,  285.511
 419.227,  300.889
 421.268,  300.311
 423.307,  298.867
 425.346,  297.556
 427.383,  294.600
 429.420,  292.044
 431.455,  291.889
 433.489,  291.756
 435.522,  280.711
 437.555,  291.756
 439.586,  291.644
 441.616,  290.711
 443.645,  287.667
 445.673,  289.111
 447.699,  288.689
 449.725,  271.733
 451.750,  269.756
 453.774,  269.333
 455.796,  268.867
 457.818,  273.333
 459.838,  281.800
 461.858,  281.711
 463.876,  280.067
 465.893,  279.178
 467.910,  267.600
 469.925,  266.778
 471.939,  268.333
 473.952,  268.289
 475.964,  267.556
 477.975,  267.689
 479.985,  268.267
 481.994,  267.978
 484.002,  268.622
 486.009,  270.067
 488.015,  279.000
 490.020,  276.000
 492.023,  274.778
 494.026,  276.378
 496.028,  277.533
 498.028,  278.644
 500.028,  278.889
 502.026,  279.556
 504.024,  280.067
 506.020,  279.356
 508.016,  279.822
 510.010,  281.489
 512.003,  282.689
 513.996,  282.356
 515.987,  280.644
 517.977,  268.600
 519.966,  262.978
 521.954,  263.867
 523.942,  265.800
 525.928,  267.244
 527.913,  268.111
 529.897,  270.022
 531.880,  267.600
 533.862,  271.444
 535.843,  270.511
 537.822,  274.956
 539.801,  273.533
 541.779,  274.311
 543.756,  274.022
 545.732,  275.489
 547.706,  274.356
 549.680,  275.844
 551.653,  276.200
 553.625,  283.956
 555.595,  282.867
 557.565,  280.467
 559.534,  280.244
 561.501,  279.756
 563.468,  279.133
 565.433,  280.489
 567.398,  274.822
 569.362,  277.133
 571.324,  276.689
 573.286,  275.289
 575.246,  274.111
 577.206,  272.778
 579.164,  271.267
 581.121,  270.000
 583.078,  259.400
 585.033,  272.689
 586.988,  271.044
 588.941,  268.578
 590.894,  268.311
 592.845,  272.178
 594.795,  268.489
 596.745,  267.533
 598.693,  262.511
 600.640,  260.444
 602.587,  259.844
 604.532,  268.778
 606.477,  269.311
 608.420,  267.733
 610.362,  265.711
 612.304,  262.778
 614.244,  250.333
 616.183,  250.000
 618.122,  248.222
 620.059,  247.289
 621.995,  241.822
 623.931,  244.533
 625.865,  245.667
 627.798,  246.467
 629.731,  244.844
 631.662,  247.111
 633.592,  236.022
 635.522,  236.444
 637.450,  237.244
 639.377,  237.467
 641.304,  237.600
 643.229,  235.733
 645.154,  234.644
 647.077,  237.244
 648.999,  236.489
 650.921,  239.667
 652.841,  238.844
 654.761,  246.822
 656.679,  247.911
 658.597,  247.089
 660.513,  243.889
 662.429,  245.756
 664.343,  245.511
 666.257,  245.511
 668.169,  253.467
 670.081,  254.044
 671.992,  252.511
 673.901,  252.511
 675.810,  250.400
 677.717,  250.422
 679.624,  244.867
 681.530,  242.845
 683.434,  232.289
 685.338,  229.289
 687.241,  232.444
 689.143,  232.733
 691.044,  233.111
 692.943,  232.244
 694.842,  232.156
 696.740,  225.333
 698.637,  225.489
 700.533,  223.600
 702.428,  225.911
 704.322,  227.044
 706.215,  227.911
 708.107,  226.133
 709.998,  226.156
 711.888,  229.867
 713.777,  229.222
 715.666,  226.578
 717.553,  228.444
 719.439,  227.133
 721.324,  226.467
 723.209,  225.267
 725.092,  224.289
 726.974,  221.933
 728.856,  221.867
 730.736,  218.489
 732.616,  216.378
 734.494,  218.022
 736.372,  216.733
 738.249,  216.533
 740.124,  212.000
 741.999,  214.333
 743.873,  215.667
 745.746,  213.800
 747.617,  212.000
 749.488,  209.644
 751.358,  212.822
 753.227,  213.244
 755.095,  212.444
 756.962,  211.311
 758.828,  210.289
 760.694,  209.111
 762.558,  205.889
 764.421,  204.511
 766.283,  202.511
 768.145,  201.289
 770.005,  202.022
 771.865,  198.711
 773.723,  198.089
 775.581,  196.422
 777.437,  197.267
 779.293,  192.156
 781.148,  198.267
 783.001,  197.889
 784.854,  199.067
 786.706,  199.267
 788.557,  199.244
 790.407,  199.044
 792.256,  198.489
 794.104,  202.756
 795.951,  202.444
 797.798,  199.289
 799.643,  200.111
 801.487,  200.000
 803.331,  200.089
 805.173,  198.689
 807.015,  197.244
 808.855,  187.178
 810.695,  186.644
 812.534,  185.911
 814.372,  186.044
 816.209,  185.667
 818.044,  183.400
 819.879,  185.867
 821.714,  183.111
 823.547,  183.867
 825.379,  181.667
 827.210,  180.111
 829.041,  180.511
 830.870,  182.244
 832.698,  182.556
 834.526,  182.689
 836.353,  183.133
 838.178,  183.133
 840.003,  184.089
 841.827,  183.044
 843.650,  181.400
 845.472,  182.267
 847.293,  178.978
 849.113,  178.667
 850.932,  177.244
 852.751,  178.600
 854.568,  179.022
 856.385,  176.289
 858.200,  174.178
 860.015,  176.756
 861.829,  175.556
 863.641,  174.511
 865.453,  175.333
 867.264,  172.044
 869.074,  173.000
 870.883,  174.467
 872.692,  176.044
 874.499,  176.089
 876.305,  174.067
 878.111,  175.422
 879.915,  174.400
 881.719,  173.133
 883.522,  173.933
 885.324,  176.067
 887.125,  173.133
 888.925,  172.956
 890.724,  175.644
 892.522,  175.244
 894.319,  176.911
 896.115,  175.556
 897.911,  175.111
 899.705,  174.156
 901.499,  174.511
 903.292,  173.533
 905.084,  174.711
 906.875,  177.867
 908.665,  177.022
 910.454,  178.022
 912.242,  175.756
 914.029,  175.444
 915.816,  175.244
 917.601,  172.911
 919.386,  172.444
 921.170,  170.733
 922.952,  171.044
 924.734,  170.578
 926.515,  169.289
 928.295,  168.444
 930.075,  169.467
 931.853,  167.156
 933.630,  180.444
 935.407,  181.067
 937.183,  179.467
 938.957,  181.467
 940.731,  180.000
 942.504,  179.667
 944.276,  177.489
 946.047,  175.800
 947.818,  176.711
 949.587,  175.333
 951.356,  173.911
 953.123,  173.333
 954.890,  174.356
 956.656,  172.978
 958.421,  173.200
 960.185,  154.800
 961.948,  153.178
 963.710,  151.333
 965.472,  146.844
 967.232,  146.378
 968.992,  144.800
 970.751,  144.578
 972.508,  143.778
 974.265,  146.178
 976.021,  144.289
 977.777,  145.733
 979.531,  143.178
 981.284,  143.956
 983.037,  141.711
 984.789,  152.111
 986.540,  151.356
 988.289,  150.222
 990.039,  149.822
 991.787,  148.067
 993.534,  145.644
 995.280,  146.622
 997.026,  149.000
 998.771,  147.756
1000.514,  143.822
1002.257,  143.911
1003.999,  141.711
1005.741,  141.400
1007.481,  140.022
1009.220,  140.289
1010.959,  128.400
1012.697,  131.244
1014.433,  134.333
1016.169,  134.933
1017.904,  136.111
1019.639,  137.244
1021.372,  136.067
1023.105,  133.000
1024.836,  137.689
1026.567,  139.000
1028.297,  139.311
1030.026,  141.000
1031.754,  142.756
1033.481,  141.622
1035.208,  145.867
1036.933,  148.422
1038.658,  146.822
1040.382,  145.667
1042.105,  147.356
1043.827,  149.756
1045.548,  149.400
1047.268,  149.222
1048.988,  149.867
1050.707,  145.800
1052.424,  142.956
1054.141,  153.778
1055.857,  154.378
1057.573,  154.844
1059.287,  157.089
1061.001,  152.600
1062.713,  148.644
1064.425,  147.889
1066.136,  147.467
1067.846,  144.311
1069.555,  140.933
1071.264,  140.511
1072.971,  140.533
1074.678,  139.578
1076.384,  140.978
1078.089,  143.978
1079.793,  135.778
1081.496,  133.711
1083.199,  131.533
1084.900,  128.200
1086.601,  128.956
1088.301,  129.778
1090.000,  133.067
1091.698,  132.711
1093.396,  134.022
1095.092,  134.178
1096.788,  140.333
1098.483,  140.244
1100.177,  142.044
1101.870,  142.067
1103.562,  139.267
1105.254,  137.200
1106.944,  136.022
1108.634,  136.000
1110.323,  137.356
1112.011,  139.400
1113.698,  138.311
1115.385,  133.778
1117.070,  133.533
1118.755,  132.956
1120.439,  133.178
1122.122,  128.000
1123.804,  128.511
1125.486,  127.400
1127.166,  127.556
1128.846,  128.133
1130.525,  126.133
1132.203,  125.533
1133.880,  125.222
1135.556,  128.511
1137.232,  124.756
1138.907,  125.067
1140.581,  124.644
1142.254,  125.511
1143.926,  135.578
1145.597,  134.644
1147.268,  136.067
1148.938,  135.022
1150.607,  133.467
1152.275,  130.978
1153.942,  129.800
1155.608,  131.044
1157.274,  132.022
1158.939,  131.378
1160.603,  129.133
1162.266,  128.956
1163.928,  128.111
1165.590,  128.800
1167.250,  126.222
1168.910,  114.311
1170.569,  114.200
1172.227,  112.244
1173.885,  111.978
1175.541,  113.156
1177.197,  112.111
1178.852,  114.244
1180.506,  114.222
1182.159,  113.222
1183.812,  121.400
1185.463,  123.111
1187.114,  122.822
1188.764,  123.533
1190.413,  125.622
1192.062,  125.089
1193.709,  126.956
1195.356,  128.978
1197.002,  130.578
1198.647,  130.356
1200.291,  130.311
1201.935,  132.067
1203.577,  129.844
1205.219,  128.178
1206.860,  130.067
1208.501,  122.533
1210.140,  118.556
1211.779,  119.778
1213.416,  118.756
1215.053,  115.444
1216.690,  116.400
1218.325,  114.267
1219.960,  111.400
1221.593,  108.711
1223.226,  108.667
1224.859,  107.467
1226.490,  106.400
1228.120,  108.489
1229.750,  110.733
1231.379,  109.222
1233.007,  108.311
1234.635,  106.089
1236.261,  105.178
1237.887,  108.889
1239.512,  110.089
1241.136,  110.200
1242.759,  111.178
1244.382,  112.978
1246.003,  114.222
1247.624,  115.444
1249.245,  124.622
1250.864,  127.378
1252.482,  126.022
1254.100,  124.867
1255.717,  123.933
1257.333,  124.289
1258.949,  126.022
1260.563,  125.622
1262.177,  122.733
1263.790,  121.533
1265.402,  121.444
1267.013,  121.289
1268.624,  125.911
1270.234,  124.844
1271.843,  125.444
1273.451,  116.644
1275.058,  114.422
1276.665,  112.800
1278.271,  111.578
1279.876,  112.556
1281.480,  111.400
1283.084,  112.222
1284.686,  112.978
1286.288,  113.044
1287.889,  112.622
1289.490,  111.333
1291.089,  111.400
1292.688,  106.444
1294.286,  105.733
1295.883,  103.311
1297.479,  104.422
1299.075,  105.289
1300.670,  104.889
1302.264,  106.933
1303.857,  104.978
1305.450,  107.044
1307.041,  110.667
1308.632,  111.556
1310.222,  111.556
1311.812,  111.578
1313.400,  111.711
1314.988,  111.511
1316.575,  122.778
1318.161,  127.044
1319.747,  129.956
1321.332,  130.133
1322.915,  130.311
1324.499,  129.778
1326.081,  127.444
1327.663,  127.444
1329.243,  127.667
1330.823,  123.511
1332.403,  123.600
1333.981,  123.311
1335.559,  123.022
1337.136,  126.600
1338.712,  125.022
1340.287,  112.978
1341.862,  114.378
1343.436,  114.000
1345.009,  112.467
1346.581,  111.844
1348.153,  112.444
1349.724,  115.467
1351.294,  116.200
1352.863,  114.044
1354.431,  111.644
1355.999,  109.511
1357.566,  107.644
1359.132,  107.711
1360.697,  104.911
1362.262,  107.778
1363.826,  107.489
1365.389,  101.622
1366.951,   98.911
1368.513,   99.556
1370.074,   98.756
1371.634,   98.311
1373.193,   94.822
1374.752,   93.356
1376.309,   92.800
1377.866,   92.644
1379.423,   94.111
1380.978,   93.800
1382.533,   96.533
1384.087,   95.556
1385.640,   92.156
1387.193,   91.311
1388.744,   90.667
1390.295,   91.978
1391.845,   90.089
1393.395,   89.200
1394.944,   88.844
1396.491,   89.422
1398.039,   89.378
1399.585,   91.400
1401.131,   91.400
1402.676,   90.778
1404.220,   91.600
1405.763,   88.578
1407.306,   87.822
1408.848,   93.644
1410.389,   93.422
1411.929,   95.200
1413.469,   93.200
1415.008,   94.267
1416.546,   94.533
1418.083,   94.111
1419.620,   94.622
1421.156,   94.667
1422.691,   95.178
1424.225,   95.933
1425.759,   95.333
1427.292,   94.489
1428.824,   93.889
1430.355,   96.400
1431.886,   90.533
1433.416,   90.733
1434.945,   88.533
1436.473,   90.844
1438.001,   90.489
1439.528,  101.756
1441.054,  103.600
1442.580,  103.022
1444.104,  104.378
1445.628,  102.778
1447.152,  103.267
1448.674,  102.156
1450.196,  102.556
1451.717,  102.644
1453.237,  102.111
1454.757,  101.467
1456.276,  101.800
1457.794,  101.867
1459.311,  114.800
1460.827,  113.578
1462.343,  101.933
1463.858,  100.133
1465.373,  100.067
1466.886,  100.000
1468.399,  101.333
1469.912,  100.556
1471.423,   99.578
1472.934,   99.022
1474.444,   99.333
1475.953,   97.778
1477.461,  107.600
1478.969,  108.644
1480.476,  117.956
1481.982,  103.133
1483.488,  102.289
1484.993,  101.133
1486.497,  102.733
1488.000,  102.844
1489.503,  101.422
1491.005,   98.778
1492.506,  110.289
1494.007,  113.333
1495.506,  115.489
1497.005,  114.956
1498.504,  116.644
1500.001,  109.356
1501.498,  107.533
1502.994,   99.222
1504.490,  100.867
1505.984,  102.533
1507.478,  104.778
1508.971,  103.844
1510.464,  102.333
1511.956,  103.044
1513.447,  102.889
1514.937,   90.111
1516.427,   88.889
1517.916,   86.200
1519.404,   87.533
1520.891,   85.844
1522.378,   84.667
1523.864,   85.356
1525.349,   86.422
1526.834,   85.911
1528.318,   84.756
1529.801,   82.400
1531.283,   81.422
1532.765,   88.933
1534.246,   89.889
1535.726,   91.378
1537.206,   93.267
1538.685,   94.467
1540.163,   95.533
1541.640,   94.711
1543.117,   93.600
1544.593,   92.822
1546.068,   91.244
1547.543,   89.467
1549.016,   89.822
1550.490,   89.311
1551.962,   89.600
1553.434,   90.689
1554.905,   83.133
1556.375,   84.267
1557.845,   82.044
1559.313,   80.000
1560.782,   76.378
1562.249,   75.867
1563.716,   74.267
1565.182,   77.267
1566.647,   77.889
1568.112,   78.444
1569.576,   76.511
1571.039,   74.511
1572.501,   76.533
1573.963,   75.578
1575.424,   75.911
1576.885,   75.067
1578.344,   72.289
1579.803,   86.533
1581.262,   85.600
1582.719,   87.489
1584.176,   85.778
1585.632,   85.778
1587.088,   81.378
1588.543,   80.556
1589.997,   80.800
1591.450,   80.689
1592.903,   82.822
1594.355,   80.000
1595.806,   79.911
1597.256,   77.644
1598.706,   79.733
1600.155,   78.733
1601.604,   65.511
1603.052,   65.756
1604.499,   71.222
1605.945,   79.956
1607.391,   81.511
1608.836,   82.200
1610.280,   86.400
1611.724,   86.356
1613.167,   86.844
1614.609,   93.756
1616.050,   94.111
1617.491,   94.200
1618.931,   95.844
1620.371,   95.667
1621.809,   96.178
1623.247,   96.200
1624.685,   95.422
1626.122,   89.333
1627.557,   80.533
1628.993,   79.800
1630.427,   81.067
1631.861,   75.444
1633.295,   74.444
1634.727,   75.333
1636.159,   67.600
1637.590,   69.467
1639.021,   69.178
1640.450,   67.511
1641.879,   68.044
1643.308,   68.867
1644.735,   67.267
1646.163,   68.022
1647.589,   67.244
1649.015,   68.178
1650.440,   68.378
1651.864,   69.200
1653.287,   69.133
1654.710,   70.378
1656.133,   70.467
1657.554,   67.444
1658.975,   65.156
1660.395,   66.867
1661.815,   67.044
1663.234,   64.867
1664.652,   64.422
1666.069,   66.022
1667.486,   66.956
1668.902,   67.667
1670.318,   66.778
1671.732,   65.622
1673.146,   63.844
1674.560,   66.111
1675.973,   76.200
1677.385,   76.511
1678.796,   79.511
1680.207,   81.756
1681.617,   80.044
1683.026,   79.022
1684.435,   80.156
1685.843,   98.578
1687.250,   97.067
1688.657,   96.733
1690.063,   96.844
1691.468,   96.956
1692.873,   96.533
1694.277,   94.933
1695.680,   93.533
1697.082,   81.333
1698.484,   79.667
1699.886,   77.667
1701.286,   75.356
1702.686,   74.889
1704.085,   75.044
1705.484,   74.400
1706.882,   55.200
1708.279,   55.089
1709.676,   55.178
1711.072,   54.911
1712.467,   55.178
1713.861,   57.067
1715.255,   57.333
1716.649,   57.178
1718.041,   57.422
1719.433,   59.844
1720.824,   58.933
1722.215,   58.511
1723.605,   60.867
1724.994,   61.311
1726.383,   60.644
1727.771,   59.956
1729.158,   61.111
1730.544,   61.689
1731.930,   60.378
1733.316,   60.000
1734.700,   58.489
1736.084,   60.200
1737.467,   59.867
1738.850,   60.844
1740.232,   58.222
1741.613,   59.022
1742.994,   60.422
1744.374,   58.511
1745.753,   58.378
1747.132,   57.133
1748.510,   58.400
1749.887,   56.933
1751.264,   56.289
1752.640,   56.467
1754.015,   57.644
1755.390,   58.200
1756.764,   58.333
1758.138,   57.444
1759.510,   59.933
1760.883,   60.822
1762.254,   60.244
1763.625,   58.689
1764.995,   58.200
1766.364,   60.444
1767.733,   62.267
1769.101,   60.356
1770.469,   63.933
1771.836,   62.467
1773.202,   62.733
1774.568,   63.200
1775.933,   70.111
1777.297,   68.444
1778.660,   68.578
1780.023,   64.911
1781.386,   63.756
1782.747,   63.067
1784.108,   64.378
1785.469,   72.533
1786.829,   72.556
1788.188,   72.822
1789.546,   73.511
1790.904,   72.778
1792.261,   72.844
1793.618,   73.778
1794.973,   75.467
1796.329,   68.556
1797.683,   70.889
1799.037,   70.600
1800.390,   73.844
1801.743,   75.178
1803.095,   75.800
1804.446,   75.489
1805.797,   67.689
1807.147,   65.844
1808.496,   64.311
1809.845,   65.022
1811.193,   61.867
1812.541,   62.156
1813.888,   61.356
1815.234,   57.756
1816.579,   58.200
1817.924,   56.400
1819.269,   56.489
1820.612,   55.289
1821.955,   55.156
1823.298,   54.911
1824.639,   55.622
1825.980,   57.556
1827.321,   56.378
1828.661,   56.422
1830.000,   56.644
1831.338,   70.556
1832.676,   71.644
1834.014,   70.533
1835.350,   70.244
1836.686,   68.600
1838.022,   69.044
1839.356,   75.356
1840.690,   74.289
1842.024,   75.844
1843.357,   76.733
1844.689,   77.022
1846.020,   76.889
1847.351,   78.111
1848.682,   77.533
1850.011,   76.000
1851.340,   61.956
1852.669,   60.222
1853.997,   61.333
1855.324,   61.911
1856.650,   63.000
1857.976,   61.467
1859.301,   57.267
1860.626,   59.289
1861.950,   57.889
1863.273,   56.422
1864.596,   56.733
1865.918,   56.111
1867.240,   57.756
1868.561,   58.133
1869.881,   58.022
1871.200,   60.022
1872.519,   59.889
1873.838,   60.267
1875.156,   59.356
1876.473,   57.978
1877.789,   59.911
1879.105,   59.733
1880.420,   55.844
1881.735,   55.067
1883.049,   57.267
1884.362,   56.067
1885.675,   53.978
1886.987,   51.067
1888.299,   58.800
1889.609,   58.533
1890.920,   81.578
1892.229,   82.711
1893.538,   80.778
1894.847,   82.133
1896.155,   82.756
1897.462,   81.911
1898.768,   81.511
1900.074,   92.444
1901.380,   91.244
1902.684,   87.844
1903.988,   88.222
1905.292,   88.778
1906.595,   89.311
1907.897,   83.267
1909.198,   90.933
1910.499,   65.889
1911.800,   67.200
1913.099,   70.200
1914.399,   69.711
1915.697,   70.067
1916.995,   70.067
1918.292,   69.289
1919.589,   60.911
1920.885,   63.444
1922.181,   66.867
1923.475,   64.978
1924.770,   78.778
1926.063,   78.222
1927.356,   77.089
1928.649,   71.289
1929.940,   74.667
1931.232,   72.178
1932.522,   72.889
1933.812,   81.333
1935.101,   80.533
1936.390,   80.778
1937.678,   79.289
1938.966,   76.733
1940.253,   75.044
1941.539,   74.022
1942.825,   73.978
1944.110,   60.800
1945.394,   61.422
1946.678,   60.089
1947.961,   59.689
1949.244,   56.956
1950.526,   58.156
1951.808,   55.889
1953.088,   50.356
1954.369,   51.022
1955.648,   49.467
1956.927,   49.978
1958.206,   53.711
1959.484,   53.689
1960.761,   51.689
1962.037,   53.178
1963.313,   51.911
1964.589,   55.133
1965.864,   56.089
1967.138,   58.711
1968.411,   59.000
1969.684,   59.333
1970.957,   57.778
1972.229,   54.044
1973.500,   52.911
1974.770,   53.067
1976.040,   52.356
1977.310,   48.111
1978.579,   48.156
1979.847,   48.978
1981.114,   47.400
1982.381,   46.956
1983.648,   42.867
1984.914,   42.133
1986.179,   37.467
1987.443,   35.733
1988.707,   35.044
1989.971,   35.067
1991.234,   34.467
1992.496,   34.089
1993.758,   33.778
1995.019,   35.600
1996.279,   38.689
1997.539,   37.667
1998.798,   38.533
2000.057,   40.756
2001.315,   57.644
2002.572,   58.289
2003.829,   59.467
2005.086,   70.867
2006.341,   74.067
2007.596,   72.867
2008.851,   73.622
2010.105,   73.533
2011.358,   73.733
2012.611,   73.778
2013.863,   71.800
2015.115,   72.844
2016.366,   72.889
2017.616,   71.822
2018.866,   70.511
2020.115,   53.844
2021.364,   54.422
2022.612,   68.822
2023.859,   62.000
2025.106,   59.222
2026.352,   61.400
2027.598,   62.000
2028.843,   62.244
2030.088,   62.422
2031.332,   61.911
2032.575,   62.000
2033.818,   59.111
2035.060,   59.978
2036.302,   58.356
2037.543,   58.156
2038.783,   59.044
2040.023,   80.689
2041.262,   66.422
2042.501,   64.889
2043.739,   64.422
2044.976,   62.644
2046.213,   63.511
2047.450,   63.400
2048.685,   64.133
2049.921,   67.111
2051.155,   69.489
2052.389,   68.422
2053.623,   69.467
2054.856,   72.689
2056.088,   83.600
2057.320,   83.089
2058.551,   62.467
2059.781,   61.756
2061.011,   58.378
2062.241,   60.133
2063.469,   60.956
2064.698,   60.111
2065.925,   63.844
2067.152,   63.711
2068.379,   60.822
2069.605,   58.200
2070.830,   60.444
2072.055,   57.933
2073.279,   56.844
2074.503,   44.844
2075.726,   44.400
2076.948,   41.467
2078.170,   40.089
2079.391,   39.911
2080.612,   40.067
2081.832,   38.244
2083.052,   38.200
2084.271,   37.289
2085.490,   35.533
2086.707,   36.378
2087.925,   36.378
2089.142,   36.111
2090.358,   36.378
2091.573,   36.511
2092.788,   36.956
2094.003,   36.489
2095.217,   39.556
2096.430,   39.911
2097.643,   41.911
2098.855,   40.489
2100.067,   41.133
2101.278,   40.622
2102.488,   39.978
2103.698,   42.756
2104.907,   43.311
2106.116,   43.311
2107.324,   42.889
2108.532,   43.111
2109.739,   41.422
2110.946,   41.356
2112.152,   41.822
2113.357,   38.444
2114.562,   38.289
2115.766,   37.689
2116.970,   39.400
2118.173,   38.711
2119.375,   38.311
2120.577,   37.044
2121.779,   34.356
2122.980,   36.622
2124.180,   36.867
2125.380,   36.133
2126.579,   37.533
2127.777,   37.133
2128.976,   37.756
2130.173,   38.689
2131.370,   40.511
2132.566,   40.756
2133.762,   50.978
2134.957,   48.778
2136.152,   50.022
2137.346,   52.844
2138.540,   51.711
2139.733,   53.711
2140.925,   51.200
2142.117,   50.889
2143.308,   51.133
2144.499,   53.289
2145.689,   55.533
2146.879,   57.111
2148.068,   55.489
2149.257,   54.200
2150.445,   54.133
2151.632,   42.800
2152.819,   42.333
2154.005,   40.622
2155.191,   36.422
2156.376,   37.933
2157.561,   35.644
2158.745,   34.378
2159.929,   37.222
2161.112,   35.711
2162.294,   30.778
2163.476,   30.022
2164.657,   26.933
2165.838,   30.511
2167.018,   36.578
2168.198,   37.956
2169.377,   37.756
2170.556,   37.844
2171.734,   39.400
2172.911,   40.867
2174.088,   40.667
2175.264,   44.178
2176.440,   50.022
2177.616,   47.511
2178.790,   47.578
2179.964,   47.911
2181.138,   47.333
2182.311,   49.111
2183.484,   45.622
2184.656,   43.089
2185.827,   43.600
2186.998,   45.422
2188.168,   46.400
2189.338,   44.867
2190.507,   44.911
2191.676,   47.067
2192.844,   55.333
2194.012,   50.356
2195.179,   49.933
2196.345,   49.933
2197.511,   52.733
2198.677,   54.289
2199.841,   56.400
2201.006,   56.244
2202.169,   54.133
2203.333,   51.667
2204.495,   50.911
2205.658,   51.089
2206.819,   51.133
2207.980,   51.022
2209.141,   46.956
2210.301,   36.044
2211.460,   35.067
2212.619,   34.956
2213.777,   37.644
2214.935,   35.089
2216.092,   32.956
2217.249,   30.956
2218.405,   33.489
2219.561,   31.511
2220.716,   32.867
2221.871,   34.222
2223.025,   34.422
2224.178,   34.667
2225.331,   33.133
2226.483,   33.800
2227.635,   32.867
2228.787,   33.667
2229.937,   33.911
2231.088,   30.867
2232.237,   31.911
2233.387,   31.044
2234.535,   29.178
2235.683,   26.511
2236.831,   26.800
2237.978,   25.622
2239.124,   22.778
2240.270,   22.489
2241.416,   22.489
2242.561,   24.422
2243.705,   24.933
2244.849,   27.400
2245.992,   26.756
2247.135,   28.978
2248.277,   30.111
2249.419,   29.022
2250.560,   29.289
2251.701,   31.644
2252.841,   32.511
2253.980,   38.178
2255.119,   38.244
2256.258,   39.044
2257.396,   37.689
2258.533,   38.778
2259.670,   38.067
2260.807,   39.111
2261.942,   36.800
2263.078,   35.800
2264.212,   34.222
2265.347,   33.533
2266.480,   35.089
2267.614,   36.244
2268.746,   33.756
2269.878,   34.222
2271.010,   29.844
2272.141,   29.733
2273.272,   28.711
2274.402,   29.778
2275.531,   30.289
2276.660,   28.956
2277.789,   27.756
2278.917,   32.956
2280.044,   33.467
2281.171,   32.333
2282.297,   37.200
2283.423,   38.289
2284.548,   39.956
2285.673,   40.978
2286.797,   39.911
2287.921,   38.356
2289.044,   38.356
2290.167,   39.378
2291.289,   40.267
2292.411,   39.822
2293.532,   42.844
2294.652,   41.800
2295.772,   39.578
2296.892,   39.844
2298.011,   40.800
2299.129,   35.222
2300.247,   35.800
2301.365,   33.311
2302.482,   33.244
2303.598,   33.844
2304.714,   35.378
2305.829,   35.511
2306.944,   34.844
2308.059,   32.911
2309.172,   32.022
2310.286,   28.844
2311.398,   28.467
2312.511,   26.844
2313.622,   27.400
2314.734,   33.933
2315.844,   35.756
2316.955,   33.511
2318.064,   34.244
2319.173,   35.711
2320.282,   34.956
2321.390,   33.311
2322.498,   35.778
2323.605,   37.178
2324.711,   38.689
2325.817,   38.689
2326.923,   39.000
2328.028,   39.178
2329.132,   41.133
2330.236,   39.822
2331.340,   32.600
2332.443,   30.622
2333.545,   29.289
2334.647,   28.356
2335.749,   25.711
2336.850,   26.378
2337.950,   26.311
2339.050,   23.267
2340.149,   23.356
2341.248,   22.933
2342.346,   22.422
2343.444,   30.556
2344.542,   30.844
2345.638,   29.778
2346.735,   31.089
2347.830,   30.667
2348.926,   32.244
2350.020,   34.022
2351.115,   35.933
2352.209,   37.689
2353.302,   38.044
2354.394,   41.244
2355.487,   41.667
2356.578,   42.511
2357.670,   42.956
2358.760,   46.578
2359.851,   38.356
2360.940,   39.267
2362.029,   38.378
2363.118,   38.956
2364.206,   39.711
2365.294,   38.444
2366.381,   39.356
2367.468,   42.511
2368.554,   42.044
2369.639,   58.178
2370.725,   55.111
2371.809,   55.067
2372.893,   52.778
2373.977,   51.067
2375.060,   47.178
2376.143,   48.422
2377.225,   47.889
2378.306,   48.067
2379.387,   47.911
2380.468,   47.222
2381.548,   47.267
2382.628,   44.556
2383.707,   39.067
2384.785,   37.689
2385.863,   21.111
2386.941,   20.978
2388.018,   22.000
2389.095,   21.689
2390.171,   22.400
2391.246,   25.267
2392.321,   25.222
2393.396,   24.422
2394.470,   24.111
2395.544,   26.378
2396.617,   27.978
2397.689,   27.644
2398.761,   31.000
2399.833,   39.244
2400.904,   40.756
2401.975,   40.356
2403.045,   41.578
2404.114,   41.089
2405.183,   41.089
2406.252,   41.733
2407.320,   38.956
2408.388,   38.644
2409.455,   40.067
2410.521,   39.022
2411.587,   40.511
2412.653,   41.200
2413.718,   43.289
2414.783,   43.378
2415.847,   35.200
2416.910,   33.978
2417.974,   33.489
2419.036,   32.733
2420.098,   31.533
2421.160,   32.956
2422.221,   32.156
2423.282,   35.200
2424.342,   37.111
2425.402,   37.089
2426.461,   36.889
2427.520,   31.422
2428.578,   30.600
2429.636,   28.422
2430.693,   24.911
2431.749,   26.289
2432.806,   28.489
2433.861,   31.244
2434.917,   31.978
2435.971,   34.444
2437.026,   33.511
2438.080,   32.800
2439.133,   32.622
2440.186,   29.644
2441.238,   29.667
2442.290,   30.600
2443.341,   34.400
2444.392,   33.644
2445.442,   33.689
2446.492,   34.933
2447.542,   33.533
2448.590,   31.044
2449.639,   28.244
2450.687,   27.489
2451.734,   25.422
2452.781,   24.622
2453.828,   24.511
2454.874,   22.267
2455.919,   25.178
2456.964,   23.822
2458.009,   26.644
2459.053,   22.644
2460.096,   24.400
2461.139,   25.000
2462.182,   24.511
2463.224,   25.511
2464.266,   29.422
2465.307,   32.133
2466.347,   32.111
2467.387,   34.044
2468.427,   37.067
2469.466,   37.089
2470.505,   36.044
2471.543,   34.333
2472.581,   40.356
2473.618,   44.289
2474.655,   45.178
2475.691,   45.333
2476.727,   46.444
2477.762,   48.378
2478.797,   48.533
2479.832,   45.689
2480.866,   54.511
2481.899,   55.644
2482.932,   58.711
2483.964,   62.133
2484.996,   63.200
2486.028,   75.356
2487.059,   74.467
2488.089,   70.844
2489.119,   64.333
2490.149,   63.489
2491.178,   63.022
2492.207,   61.600
2493.235,   59.156
2494.262,   60.622
2495.290,   72.289
2496.316,   61.156
2497.343,   63.156
2498.368,   58.089
2499.394,   53.778
2500.418,   54.867
2501.443,   44.956
2502.467,   46.000
2503.490,   45.111
2504.513,   43.578
2505.535,   44.022
2506.557,   42.111
2507.579,   43.244
2508.600,   42.533
2509.620,   39.489
2510.640,   27.667
2511.660,   26.444
2512.679,   25.378
2513.697,   33.222
2514.716,   32.289
2515.733,   40.733
2516.750,   39.133
2517.767,   37.556
2518.783,   37.311
2519.799,   40.022
2520.815,   48.689
2521.829,   48.467
2522.844,   48.444
2523.858,   51.511
2524.871,   51.689
2525.884,   52.089
2526.897,   53.089
2527.909,   51.289
2528.920,   43.844
2529.931,   42.422
2530.942,   33.756
2531.952,   34.000
2532.962,   33.867
2533.971,   36.244
2534.980,   33.800
2535.988,   27.511
2536.996,   29.467
2538.003,   27.778
2539.010,   24.911
2540.016,   24.689
2541.022,   25.822
2542.028,   26.444
2543.033,   25.000
2544.037,   24.289
2545.041,   24.622
2546.045,   22.689
2547.048,   22.822
2548.051,   25.511
2549.053,   21.311
2550.055,   22.333
2551.056,   26.511
2552.057,   25.911
2553.057,   26.400
2554.057,   26.311
2555.056,   26.711
2556.055,   23.800
2557.054,   24.511
2558.052,   25.044
2559.049,   25.356
2560.046,   25.533
2561.043,   26.911
2562.039,   25.778
2563.035,   24.289
2564.030,   27.200
2565.025,   26.111
2566.019,   19.844
2567.013,   18.844
2568.006,   19.111
2568.999,   19.556
2569.992,   20.756
2570.984,   22.511
2571.975,   21.067
2572.966,   21.911
2573.957,   23.156
2574.947,   24.533
2575.937,   23.222
2576.926,   24.533
2577.915,   23.022
2578.903,   20.867
2579.891,   22.178
2580.878,   22.067
2581.865,   21.000
2582.852,   20.800
2583.838,   23.378
2584.823,   22.156
2585.808,   20.644
2586.793,   22.333
2587.777,   22.711
2588.761,   21.289
2589.744,   20.978
2590.727,   22.044
2591.710,   21.533
2592.691,   22.889
2593.673,   22.022
2594.654,   21.511
2595.634,   21.222
2596.615,   21.422
2597.594,   20.911
2598.573,   19.044
2599.552,   19.289
2600.530,   22.644
2601.508,   23.467
2602.485,   24.956
2603.462,   24.600
2604.439,   27.556
2605.415,   27.044
2606.390,   27.378
2607.365,   27.444
2608.340,   31.911
2609.314,   32.222
2610.288,   31.867
2611.261,   32.778
2612.234,   32.933
2613.206,   31.911
2614.178,   32.378
2615.150,   30.022
2616.121,   28.644
2617.091,   27.222
2618.062,   35.978
2619.031,   32.200
2620.000,   33.978
2620.969,   32.911
2621.938,   31.444
2622.905,   28.689
2623.873,   29.222
2624.840,   30.311
2625.806,   31.600
2626.772,   31.467
2627.738,   41.822
2628.703,   45.889
2629.668,   45.489
2630.632,   45.467
2631.596,   45.489
2632.559,   36.978
2633.522,   36.378
2634.485,   35.422
2635.447,   35.533
2636.408,   36.867
2637.370,   35.556
2638.330,   34.911
2639.291,   36.867
2640.250,   35.844
2641.210,   35.956
2642.169,   26.622
2643.127,   23.133
2644.085,   22.333
2645.043,   20.600
2646.000,   19.022
2646.956,   20.356
2647.913,   22.244
2648.868,   20.756
2649.824,   21.644
2650.779,   26.578
2651.733,   27.222
2652.687,   28.467
2653.641,   25.222
2654.594,   24.000
2655.547,   23.511
2656.499,   32.933
2657.451,   32.533
2658.402,   45.044
2659.353,   48.133
2660.303,   48.267
2661.253,   51.911
2662.203,   51.267
2663.152,   52.400
2664.101,   51.044
2665.049,   46.733
2665.997,   45.911
2666.944,   43.289
2667.891,   55.111
2668.838,   55.422
2669.784,   56.978
2670.730,   47.422
2671.675,   47.689
2672.619,   34.978
2673.564,   32.822
2674.508,   32.600
2675.451,   30.267
2676.394,   31.156
2677.337,   30.467
2678.279,   32.267
2679.220,   33.356
2680.162,   36.067
2681.102,   35.800
2682.043,   24.044
2682.983,   25.956
2683.922,   25.311
2684.861,   24.044
2685.800,   23.733
2686.738,   26.467
2687.676,   25.667
2688.613,   25.622
2689.550,   23.956
2690.486,   21.911
2691.422,   22.733
2692.358,   23.444
2693.293,   21.978
2694.228,   21.889
2695.162,   37.356
2696.096,   38.911
2697.029,   36.733
2697.962,   36.200
2698.895,   38.178
2699.827,   36.956
2700.759,   34.356
2701.690,   42.333
2702.621,   42.711
2703.551,   42.978
2704.481,   43.022
2705.410,   43.267
2706.339,   41.333
2707.268,   41.311
2708.196,   41.222
2709.124,   27.467
2710.051,   34.000
2710.978,   34.089
2711.905,   34.133
2712.831,   32.267
2713.756,   33.800
2714.681,   36.689
2715.606,   28.378
2716.530,   28.067
2717.454,   26.311
2718.378,   26.111
2719.301,   25.733
2720.223,   26.467
2721.146,   30.333
2722.067,   29.556
2722.989,   27.978
2723.910,   21.756
2724.830,   21.822
2725.750,   24.489
2726.670,   26.467
2727.589,   26.356
2728.507,   25.378
2729.426,   25.667
2730.344,   25.578
2731.261,   26.311
2732.178,   27.511
2733.095,   29.844
2734.011,   28.800
2734.927,   26.111
2735.842,   31.689
2736.757,   33.489
2737.671,   32.111
2738.585,   31.778
2739.499,   29.422
2740.412,   29.289
2741.325,   29.044
2742.237,   27.111
2743.149,   27.067
2744.061,   36.156
2744.972,   35.911
2745.882,   34.800
2746.793,   32.800
2747.702,   32.511
2748.612,   31.644
2749.521,   24.222
2750.429,   23.356
2751.337,   24.844
2752.245,   24.533
2753.152,   25.311
2754.059,   23.444
2754.966,   23.778
2755.871,   25.600
2756.777,   26.022
2757.682,   16.778
2758.587,   16.778
2759.491,   17.911
2760.395,   23.289
2761.299,   23.756
2762.202,   25.933
2763.104,   27.378
2764.006,   28.333
2764.908,   26.289
2765.810,   26.800
2766.710,   26.933
2767.611,   26.822
2768.511,   27.800
2769.411,   28.578
2770.310,   29.533
2771.209,   30.156
2772.107,   35.911
2773.005,   35.067
2773.903,   27.933
2774.800,   27.467
2775.697,   27.644
2776.593,   30.400
2777.489,   31.244
2778.384,   33.333
2779.280,   33.133
2780.174,   31.511
2781.068,   34.111
2781.962,   31.756
2782.856,   29.356
2783.749,   29.289
2784.641,   29.156
2785.533,   22.956
2786.425,   24.778
2787.316,   25.222
2788.207,   25.400
2789.098,   22.400
2789.988,   18.356
2790.878,   16.644
2791.767,   14.689
2792.656,   17.378
2793.544,   18.711
2794.432,   19.044
2795.320,   19.867
2796.207,   21.733
2797.094,   21.267
2797.980,   23.956
2798.866,   23.933
2799.751,   21.867
2800.636,   23.733
2801.521,   23.978
2802.405,   43.311
2803.289,   43.600
2804.173,   44.356
2805.056,   44.711
2805.938,   42.067
2806.821,   42.244
2807.702,   40.911
2808.584,   41.422
2809.465,   52.822
2810.345,   51.444
2811.226,   48.267
2812.105,   49.489
2812.985,   51.778
2813.864,   49.933
2814.742,   49.556
2815.620,   29.000
2816.498,   29.667
2817.375,   27.978
2818.252,   27.689
2819.129,   27.556
2820.005,   27.311
2820.880,   27.244
2821.755,   27.089
2822.630,   14.822
2823.505,   15.156
2824.379,   15.822
2825.252,   14.667
2826.126,   14.667
2826.998,   20.622
2827.871,   22.311
2828.743,   22.356
2829.614,   21.089
2830.485,   28.533
2831.356,   29.889
2832.227,   33.000
2833.097,   32.200
2833.966,   32.089
2834.835,   33.311
2835.704,   34.867
2836.572,   36.267
2837.440,   36.800
2838.308,   37.956
2839.175,   36.667
2840.041,   30.711
2840.908,   39.844
2841.774,   42.644
2842.639,   42.644
2843.504,   36.289
2844.369,   34.844
2845.233,   31.867
2846.097,   32.800
2846.960,   31.533
2847.823,   29.956
2848.686,   27.089
2849.548,   23.333
2850.410,    7.000
2851.272,    6.333
2852.133,   24.000
2852.993,    6.667
2853.854,   18.333
2854.713,    4.667
##END=
